File: Laboratorio 2/Verificar Equacao de Randles Sevcik/CV_100 mV_Ferri_ferro.txt
Potential applied (V);Time (s);WE(1).Current (A);WE(1).Potential (V);Scan;Index;Q+;Q-
-0.196838;22.4881;-0.000547485;-0.196655;2;1501;;
-0.188293;22.5735;-0.000536499;-0.188141;2;1509;;
-0.179749;22.659;-0.000527039;-0.179657;2;1517;;
-0.171204;22.7444;-0.000518188;-0.171051;2;1525;;
-0.162659;22.8299;-0.000509338;-0.162598;2;1533;;
-0.154114;22.9153;-0.000501404;-0.153992;2;1541;;
-0.145569;23.0008;-0.000493347;-0.145416;2;1549;;
-0.137024;23.0862;-0.000485413;-0.136902;2;1557;;
-0.128479;23.1716;-0.000477783;-0.128326;2;1565;;
-0.119934;23.2571;-0.00046994;-0.119873;2;1573;;
-0.111389;23.3425;-0.000462402;-0.111237;2;1581;;
-0.102844;23.428;-0.000454895;-0.102753;2;1589;;
-0.0942993;23.5134;-0.000447388;-0.0941772;2;1597;;
-0.0857544;23.5989;-0.000439972;-0.0857239;2;1605;;
-0.0772095;23.6843;-0.000432465;-0.0771484;2;1613;;
-0.0686646;23.7698;-0.000425262;-0.068573;2;1621;;
-0.0601196;23.8552;-0.000417847;-0.0599976;2;1629;;
-0.0515747;23.9407;-0.000410675;-0.0514832;2;1637;;
-0.0430298;24.0261;-0.000403503;-0.0429932;2;1645;;
-0.0344849;24.1116;-0.000396484;-0.0344543;2;1653;;
-0.0259399;24.197;-0.00038916;-0.0258972;2;1661;;
-0.017395;24.2825;-0.000382111;-0.0173767;2;1669;;
-0.0088501;24.3679;-0.000375031;-0.00881958;2;1677;;
-0.000305176;24.4534;-0.000367828;-0.000308228;2;1685;;
0.00823975;24.5388;-0.000360596;0.00828247;2;1693;;
0.0167847;24.6243;-0.000353363;0.0168243;2;1701;;
0.0253296;24.7097;-0.000346069;0.0253693;2;1709;;
0.0338745;24.7952;-0.000338562;0.0339386;2;1717;;
0.0424194;24.8806;-0.000331238;0.0424744;2;1725;;
0.0509644;24.9661;-0.000323578;0.0509338;2;1733;;
0.0595093;25.0515;-0.00031604;0.0595093;2;1741;;
0.0680542;25.137;-0.000307953;0.0681152;2;1749;;
0.0765991;25.2224;-0.000299652;0.0766296;2;1757;;
0.085144;25.3078;-0.000291168;0.0851746;2;1765;;
0.093689;25.3933;-0.000282257;0.093689;2;1773;;
0.102234;25.4787;-0.000272675;0.102264;2;1781;;
0.110779;25.5642;-0.000262909;0.110809;2;1789;;
0.119324;25.6496;-0.000252075;0.119324;2;1797;;
0.127869;25.7351;-0.000240875;0.127869;2;1805;;
0.136414;25.8205;-0.000228607;0.136475;2;1813;;
0.144958;25.906;-0.000215759;0.14502;2;1821;;
0.153503;25.9914;-0.000201874;0.153595;2;1829;;
0.162048;26.0769;-0.000187012;0.162079;2;1837;;
0.170593;26.1623;-0.00017157;0.170654;2;1845;;
0.179138;26.2478;-0.000155365;0.179199;2;1853;;
0.187683;26.3332;-0.00013858;0.187653;2;1861;;
0.196228;26.4187;-0.000121124;0.196259;2;1869;;
0.204773;26.5041;-0.000103577;0.204865;2;1877;;
0.213318;26.5896;-8.60291e-05;0.213409;2;1885;;
0.221863;26.675;-6.82983e-05;0.221863;2;1893;;
0.230408;26.7605;-5.078125E-05;0.230438;2;1901;;
0.238953;26.8459;-3.38226e-05;0.239014;2;1909;;
0.247498;26.9314;-1.74377e-05;0.247528;2;1917;;
0.256042;27.0168;-1.72028e-06;0.256165;2;1925;;
0.264587;27.1023;1.31653e-05;0.264465;2;1933;;
0.273132;27.1877;2.68799e-05;0.272766;2;1941;;
0.281677;27.2732;3.96027e-05;0.281677;2;1949;;
0.290222;27.3586;5.1178e-05;0.290253;2;1957;;
0.298767;27.444;6.13403e-05;0.298676;2;1965;;
0.307312;27.5295;7.04041e-05;0.307251;2;1973;;
0.315857;27.6149;7.82166e-05;0.315826;2;1981;;
0.324402;27.7004;8.47168e-05;0.324402;2;1989;;
0.332947;27.7858;9.01184e-05;0.332916;2;1997;;
0.341492;27.8713;9.43909e-05;0.341492;2;2005;;
0.350037;27.9567;9.77478e-05;0.350006;2;2013;;
0.358582;28.0422;0.000100311;0.358582;2;2021;;
0.367126;28.1276;0.000102203;0.367065;2;2029;;
0.375671;28.2131;0.000103577;0.375702;2;2037;;
0.384216;28.2985;0.000104614;0.384186;2;2045;;
0.392761;28.384;0.000105408;0.392731;2;2053;;
0.401306;28.4694;0.00010611;0.401306;2;2061;;
0.409851;28.5549;0.000106628;0.409851;2;2069;;
0.418396;28.6403;0.000107269;0.418396;2;2077;;
0.426941;28.7258;0.000108002;0.426941;2;2085;;
0.435486;28.8112;0.000108826;0.435516;2;2093;;
0.444031;28.8967;0.000109894;0.444;2;2101;;
0.452576;28.9821;0.000110992;0.452606;2;2109;;
0.461121;29.0676;0.000112427;0.46109;2;2117;;
0.469666;29.153;0.000113983;0.469635;2;2125;;
0.47821;29.2385;0.000115723;0.478241;2;2133;;
0.486755;29.3239;0.000117676;0.486694;2;2141;;
0.4953;29.4094;0.000119812;0.49527;2;2149;;
0.503845;29.4948;0.000122101;0.503845;2;2157;;
0.51239;29.5802;0.000124603;0.51239;2;2165;;
0.520935;29.6657;0.000127258;0.520935;2;2173;;
0.52948;29.7511;0.000130035;0.529419;2;2181;;
0.538025;29.8366;0.000133026;0.537933;2;2189;;
0.54657;29.922;0.000136108;0.546509;2;2197;;
0.555115;30.0075;0.000139343;0.555084;2;2205;;
0.56366;30.0929;0.000142761;0.563599;2;2213;;
0.572205;30.1784;0.000146179;0.572144;2;2221;;
0.58075;30.2638;0.000149811;0.580719;2;2229;;
0.589294;30.3493;0.000153534;0.589233;2;2237;;
0.597839;30.4347;0.000157349;0.597748;2;2245;;
0.593567;30.5202;0.000150238;0.593445;2;2253;;
0.585022;30.6056;0.000141754;0.584991;2;2261;;
0.576477;30.6911;0.000133881;0.576477;2;2269;;
0.567932;30.7765;0.000126343;0.567871;2;2277;;
0.559387;30.862;0.000119019;0.559387;2;2285;;
0.550842;30.9474;0.000111847;0.550842;2;2293;;
0.542297;31.0329;0.000104828;0.542267;2;2301;;
0.533752;31.1183;9.78394e-05;0.533752;2;2309;;
0.525208;31.2038;9.10034e-05;0.525238;2;2317;;
0.516663;31.2892;8.41675e-05;0.516693;2;2325;;
0.508118;31.3747;7.73926e-05;0.508118;2;2333;;
0.499573;31.4601;7.07092e-05;0.499634;2;2341;;
0.491028;31.5456;6.39954e-05;0.491089;2;2349;;
0.482483;31.631;5.73425e-05;0.482544;2;2357;;
0.473938;31.7164;5.07202e-05;0.473999;2;2365;;
0.465393;31.8019;4.41071e-05;0.465515;2;2373;;
0.456848;31.8873;3.75092e-05;0.45694;2;2381;;
0.448303;31.9728;3.08716e-05;0.448364;2;2389;;
0.439758;32.0582;2.42676e-05;0.43985;2;2397;;
0.431213;32.1437;1.76575e-05;0.431244;2;2405;;
0.422668;32.2291;1.10138e-05;0.42276;2;2413;;
0.414124;32.3146;4.37927e-06;0.414154;2;2421;;
0.405579;32.4;-2.32147e-06;0.405731;2;2429;;
0.397034;32.4855;-9.00879e-06;0.397278;2;2437;;
0.388489;32.5709;-1.5683e-05;0.388702;2;2445;;
0.379944;32.6564;-2.25067e-05;0.380188;2;2453;;
0.371399;32.7418;-2.93976e-05;0.371826;2;2461;;
0.362854;32.8273;-3.63037e-05;0.363037;2;2469;;
0.354309;32.9127;-4.33624e-05;0.354462;2;2477;;
0.345764;32.9982;-5.05066e-05;0.345856;2;2485;;
0.337219;33.0836;-5.77393e-05;0.337372;2;2493;;
0.328674;33.1691;-6.52466e-05;0.328766;2;2501;;
0.320129;33.2545;-7.2937e-05;0.320251;2;2509;;
0.311584;33.34;-8.09326e-05;0.311707;2;2517;;
0.30304;33.4254;-8.91418e-05;0.303192;2;2525;;
0.294495;33.5109;-9.77478e-05;0.294617;2;2533;;
0.28595;33.5963;-0.00010672;0.286163;2;2541;;
0.277405;33.6818;-0.000116302;0.277618;2;2549;;
0.26886;33.7672;-0.000126434;0.269043;2;2557;;
0.260315;33.8526;-0.000137054;0.260529;2;2565;;
0.25177;33.9381;-0.000148651;0.251953;2;2573;;
0.243225;34.0235;-0.000160858;0.243408;2;2581;;
0.23468;34.109;-0.00017395;0.234833;2;2589;;
0.226135;34.1944;-0.000188019;0.226288;2;2597;;
0.21759;34.2799;-0.00020285;0.217834;2;2605;;
0.209045;34.3653;-0.000218262;0.20932;2;2613;;
0.2005;34.4508;-0.000234528;0.200745;2;2621;;
0.191956;34.5362;-0.000251373;0.192261;2;2629;;
0.183411;34.6217;-0.000268585;0.183716;2;2637;;
0.174866;34.7071;-0.00028595;0.175171;2;2645;;
0.166321;34.7926;-0.000303528;0.166351;2;2653;;
0.157776;34.878;-0.000320709;0.157867;2;2661;;
0.149231;34.9635;-0.000337524;0.149292;2;2669;;
0.140686;35.0489;-0.00035376;0.140747;2;2677;;
0.132141;35.1344;-0.000369293;0.132233;2;2685;;
0.123596;35.2198;-0.00038385;0.123657;2;2693;;
0.115051;35.3053;-0.000397186;0.115082;2;2701;;
0.106506;35.3907;-0.000409454;0.106567;2;2709;;
0.0979614;35.4762;-0.000420532;0.0980225;2;2717;;
0.0894165;35.5616;-0.000430603;0.0894775;2;2725;;
0.0808716;35.6471;-0.000439514;0.0809021;2;2733;;
0.0723267;35.7325;-0.000447174;0.0723572;2;2741;;
0.0637817;35.818;-0.000454132;0.0638123;2;2749;;
0.0552368;35.9034;-0.000460083;0.0553284;2;2757;;
0.0466919;35.9888;-0.000465118;0.0467712;2;2765;;
0.038147;36.0743;-0.000469666;0.0381744;2;2773;;
0.0296021;36.1597;-0.00047345;0.02966;2;2781;;
0.0210571;36.2452;-0.000477295;0.021106;2;2789;;
0.0125122;36.3306;-0.000480347;0.0125336;2;2797;;
0.00396729;36.4161;-0.000483063;0.00394287;2;2805;;
-0.00457764;36.5015;-0.000486023;-0.00454407;2;2813;;
-0.0131226;36.587;-0.000488617;-0.0131012;2;2821;;
-0.0216675;36.6724;-0.000490845;-0.0216461;2;2829;;
-0.0302124;36.7579;-0.000493286;-0.0301819;2;2837;;
-0.0387573;36.8433;-0.000495911;-0.0387482;2;2845;;
-0.0473022;36.9288;-0.000498383;-0.0472748;2;2853;;
-0.0558472;37.0142;-0.000500488;-0.0558167;2;2861;;
-0.0643921;37.0997;-0.000503235;-0.0643311;2;2869;;
-0.072937;37.1851;-0.000505676;-0.0729065;2;2877;;
-0.0814819;37.2706;-0.000508423;-0.0814209;2;2885;;
-0.0900269;37.356;-0.000511475;-0.0899963;2;2893;;
-0.0985718;37.4415;-0.000514221;-0.0985413;2;2901;;
-0.107117;37.5269;-0.000517578;-0.107086;2;2909;;
-0.115662;37.6124;-0.000520325;-0.115631;2;2917;;
-0.124207;37.6978;-0.000523682;-0.124084;2;2925;;
-0.132751;37.7833;-0.000527039;-0.13266;2;2933;;
-0.141296;37.8687;-0.000530701;-0.141174;2;2941;;
-0.149841;37.9542;-0.000534058;-0.14978;2;2949;;
-0.158386;38.0396;-0.00053772;-0.158264;2;2957;;
-0.166931;38.125;-0.000541382;-0.16687;2;2965;;
-0.175476;38.2105;-0.000545349;-0.175354;2;2973;;
-0.184021;38.2959;-0.000549316;-0.183868;2;2981;;
-0.192566;38.3814;-0.000553284;-0.192474;2;2989;;
-0.198975;38.4668;-0.000553284;-0.198822;2;2997;;
-0.197906;38.4775;-0.000551453;-0.197723;2;2998;;