File: Laboratorio 2/Verificar Equacao de Randles Sevcik/CV_50 mV_Ferri_ferro.txt
Potential applied (V);Time (s);WE(1).Current (A);WE(1).Potential (V);Scan;Index;Q+;Q-;Current range
-0.198975;6.48016;-0.000233368;-0.198792;1;1;0.00114686;-0.0031123;1 mA
-0.174408;6.97148;-0.000219269;-0.174255;1;24;0.00114686;-0.0031123;1 mA
-0.149841;7.46281;-0.000208038;-0.149719;1;47;0.00114686;-0.0031123;1 mA
-0.125275;7.95414;-0.000197357;-0.125153;1;70;0.00114686;-0.0031123;1 mA
-0.100708;8.44546;-0.000187408;-0.100616;1;93;0.00114686;-0.0031123;1 mA
-0.0761414;8.93679;-0.000177917;-0.0760803;1;116;0.00114686;-0.0031123;1 mA
-0.0515747;9.42811;-0.000168518;-0.0515442;1;139;0.00114686;-0.0031123;1 mA
-0.0270081;9.91944;-0.000159302;-0.0269806;1;162;0.00114686;-0.0031123;1 mA
-0.00244141;10.4108;-0.000150024;-0.00243225;1;185;0.00114686;-0.0031123;1 mA
0.0221252;10.9021;-0.000140564;0.0221649;1;208;0.00114686;-0.0031123;1 mA
0.0466919;11.3934;-0.000130249;0.0467621;1;231;0.00114686;-0.0031123;1 mA
0.0712585;11.8847;-0.000118744;0.0712891;1;254;0.00114686;-0.0031123;1 mA
0.0958252;12.3761;-0.000104095;0.0958252;1;277;0.00114686;-0.0031123;1 mA
0.120392;12.8674;-8.45032e-05;0.120483;1;300;0.00114686;-0.0031123;100 µA
0.144958;13.3587;-5.69458e-05;0.14505;1;323;0.00114686;-0.0031123;100 µA
0.169525;13.85;-1.90765e-05;0.169586;1;346;0.00114686;-0.0031123;100 µA
0.194092;14.3414;2.24152e-05;0.193878;1;369;0.00114686;-0.0031123;10 µA
0.218658;14.8327;6.04553e-05;0.218597;1;392;0.00114686;-0.0031123;100 µA
0.243225;15.324;9.10034e-05;0.243164;1;415;0.00114686;-0.0031123;100 µA
0.267792;15.8154;0.000111603;0.267761;1;438;0.00114686;-0.0031123;100 µA
0.292358;16.3067;0.000124481;0.292267;1;461;0.00114686;-0.0031123;100 µA
0.316925;16.798;0.00013089;0.316864;1;484;0.00114686;-0.0031123;100 µA
0.341492;17.2893;0.000132568;0.341431;1;507;0.00114686;-0.0031123;100 µA
0.366058;17.7807;0.000130829;0.366058;1;530;0.00114686;-0.0031123;100 µA
0.390625;18.272;0.000127075;0.390564;1;553;0.00114686;-0.0031123;100 µA
0.415192;18.7633;0.000122314;0.415161;1;576;0.00114686;-0.0031123;100 µA
0.439758;19.2546;0.00011731;0.439728;1;599;0.00114686;-0.0031123;100 µA
0.464325;19.746;0.000112732;0.464294;1;622;0.00114686;-0.0031123;100 µA
0.488892;20.2373;0.000108765;0.488892;1;645;0.00114686;-0.0031123;100 µA
0.513458;20.7286;0.000105591;0.513489;1;668;0.00114686;-0.0031123;100 µA
0.538025;21.2199;0.000103271;0.538055;1;691;0.00114686;-0.0031123;100 µA
0.562592;21.7113;0.000101654;0.562592;1;714;0.00114686;-0.0031123;100 µA
0.587158;22.2026;0.000100891;0.587189;1;737;0.00114686;-0.0031123;100 µA
0.588226;22.6939;9.28345e-05;0.588257;1;760;0.00114686;-0.0031123;100 µA
0.56366;23.1852;8.1665e-05;0.563721;1;783;0.00114686;-0.0031123;100 µA
0.539093;23.6766;7.21436e-05;0.539154;1;806;0.00114686;-0.0031123;100 µA
0.514526;24.1679;6.34155e-05;0.514587;1;829;0.00114686;-0.0031123;100 µA
0.48996;24.6592;5.51758e-05;0.490021;1;852;0.00114686;-0.0031123;100 µA
0.465393;25.1505;4.72229e-05;0.465393;1;875;0.00114686;-0.0031123;100 µA
0.440826;25.6419;3.94257e-05;0.440887;1;898;0.00114686;-0.0031123;100 µA
0.41626;26.1332;3.17047e-05;0.416321;1;921;0.00114686;-0.0031123;100 µA
0.391693;26.6245;2.39288e-05;0.391785;1;944;0.00114686;-0.0031123;100 µA
0.367126;27.1159;1.60156e-05;0.367218;1;967;0.00114686;-0.0031123;100 µA
0.34256;27.6072;7.52258e-06;0.34256;1;990;0.00114686;-0.0031123;10 µA
0.317993;28.0985;-1.78925e-06;0.318237;1;1013;0.00114686;-0.0031123;1 µA
0.293427;28.5898;-1.2793e-05;0.29361;1;1036;0.00114686;-0.0031123;10 µA
0.26886;29.0812;-2.73285e-05;0.269165;1;1059;0.00114686;-0.0031123;10 µA
0.244293;29.5725;-4.78088e-05;0.244446;1;1082;0.00114686;-0.0031123;100 µA
0.219727;30.0638;-7.72705e-05;0.219818;1;1105;0.00114686;-0.0031123;100 µA
0.19516;30.5551;-0.000116394;0.195343;1;1128;0.00114686;-0.0031123;100 µA
0.170593;31.0465;-0.000160522;0.170776;1;1151;0.00114686;-0.0031123;100 µA
0.146027;31.5378;-0.000203644;0.14621;1;1174;0.00114686;-0.0031123;100 µA
0.12146;32.0291;-0.000235992;0.121674;1;1197;0.00114686;-0.0031123;100 µA
0.0968933;32.5204;-0.000254272;0.097168;1;1220;0.00114686;-0.0031123;100 µA
0.0723267;33.0118;-0.00026239;0.0726013;1;1243;0.00114686;-0.0031123;100 µA
0.04776;33.5031;-0.000263916;0.0478271;1;1266;0.00114686;-0.0031123;100 µA
0.0231934;33.9944;-0.000262146;0.0232452;1;1289;0.00114686;-0.0031123;100 µA
-0.00137329;34.4857;-0.00025885;-0.00133667;1;1312;0.00114686;-0.0031123;100 µA
-0.0259399;34.9771;-0.000255371;-0.0258911;1;1335;0.00114686;-0.0031123;100 µA
-0.0505066;35.4684;-0.000252258;-0.050293;1;1358;0.00114686;-0.0031123;100 µA
-0.0750732;35.9597;-0.00024942;-0.0748596;1;1381;0.00114686;-0.0031123;100 µA
-0.0996399;36.451;-0.000247162;-0.0993652;1;1404;0.00114686;-0.0031123;100 µA
-0.124207;36.9424;-0.000245667;-0.123871;1;1427;0.00114686;-0.0031123;100 µA
-0.148773;37.4337;-0.00024469;-0.148468;1;1450;0.00114686;-0.0031123;100 µA
-0.17334;37.925;-0.000243866;-0.173004;1;1473;0.00114686;-0.0031123;100 µA
-0.197906;38.4163;-0.000244537;-0.19754;1;1496;0.00114686;-0.0031123;100 µA
-0.177612;38.9077;-0.000226746;-0.177277;2;1519;0.00114513;-0.00310772;100 µA
-0.153046;39.399;-0.000213562;-0.152771;2;1542;0.00114513;-0.00310772;100 µA
-0.128479;39.8903;-0.000201904;-0.128265;2;1565;0.00114513;-0.00310772;100 µA
-0.103912;40.3817;-0.000191406;-0.103729;2;1588;0.00114513;-0.00310772;100 µA
-0.0793457;40.873;-0.000181;-0.0791626;2;1611;0.00114513;-0.00310772;100 µA
-0.0547791;41.3643;-0.000171478;-0.0545959;2;1634;0.00114513;-0.00310772;100 µA
-0.0302124;41.8556;-0.000161896;-0.0301727;2;1657;0.00114513;-0.00310772;100 µA
-0.00564575;42.347;-0.000152435;-0.00562744;2;1680;0.00114513;-0.00310772;100 µA
0.0189209;42.8383;-0.000142609;0.0189758;2;1703;0.00114513;-0.00310772;100 µA
0.0434875;43.3296;-0.000132172;0.0435364;2;1726;0.00114513;-0.00310772;100 µA
0.0680542;43.8209;-0.000120453;0.0681763;2;1749;0.00114513;-0.00310772;100 µA
0.0926208;44.3123;-0.000106476;0.0926819;2;1772;0.00114513;-0.00310772;100 µA
0.1171875;44.8036;-8.74939e-05;0.117279;2;1795;0.00114513;-0.00310772;100 µA
0.141754;45.2949;-6.09741e-05;0.141815;2;1818;0.00114513;-0.00310772;100 µA
0.166321;45.7862;-2.43469e-05;0.166412;2;1841;0.00114513;-0.00310772;100 µA
0.190887;46.2776;1.73981e-05;0.190735;2;1864;0.00114513;-0.00310772;10 µA
0.215454;46.7689;5.61523e-05;0.215424;2;1887;0.00114513;-0.00310772;100 µA
0.240021;47.2602;8.72498e-05;0.23996;2;1910;0.00114513;-0.00310772;100 µA
0.264587;47.7515;0.0001091;0.264496;2;1933;0.00114513;-0.00310772;100 µA
0.289154;48.2429;0.000122437;0.2890625;2;1956;0.00114513;-0.00310772;100 µA
0.313721;48.7342;0.000129333;0.31369;2;1979;0.00114513;-0.00310772;100 µA
0.338287;49.2255;0.000131439;0.338226;2;2002;0.00114513;-0.00310772;100 µA
0.362854;49.7168;0.00013028;0.362823;2;2025;0.00114513;-0.00310772;100 µA
0.387421;50.2082;0.000126831;0.38739;2;2048;0.00114513;-0.00310772;100 µA
0.411987;50.6995;0.000122345;0.411987;2;2071;0.00114513;-0.00310772;100 µA
0.436554;51.1908;0.000117523;0.436584;2;2094;0.00114513;-0.00310772;100 µA
0.461121;51.6822;0.000113037;0.46106;2;2117;0.00114513;-0.00310772;100 µA
0.485687;52.1735;0.00010907;0.485687;2;2140;0.00114513;-0.00310772;100 µA
0.510254;52.6648;0.000105865;0.510254;2;2163;0.00114513;-0.00310772;100 µA
0.534821;53.1561;0.000103455;0.534821;2;2186;0.00114513;-0.00310772;100 µA
0.559387;53.6475;0.000101807;0.559418;2;2209;0.00114513;-0.00310772;100 µA
0.583954;54.1388;0.000100891;0.583984;2;2232;0.00114513;-0.00310772;100 µA
0.591431;54.6301;9.4635e-05;0.591492;2;2255;0.00114513;-0.00310772;100 µA
0.566864;55.1214;8.30994e-05;0.566925;2;2278;0.00114513;-0.00310772;100 µA
0.542297;55.6128;7.35168e-05;0.542358;2;2301;0.00114513;-0.00310772;100 µA
0.517731;56.1041;6.47278e-05;0.517822;2;2324;0.00114513;-0.00310772;100 µA
0.493164;56.5954;5.64575e-05;0.493225;2;2347;0.00114513;-0.00310772;100 µA
0.468597;57.0867;4.84955e-05;0.468628;2;2370;0.00114513;-0.00310772;100 µA
0.444031;57.5781;4.0741e-05;0.444092;2;2393;0.00114513;-0.00310772;100 µA
0.419464;58.0694;3.30261e-05;0.419495;2;2416;0.00114513;-0.00310772;100 µA
0.394897;58.5607;2.53204e-05;0.394989;2;2439;0.00114513;-0.00310772;100 µA
0.370331;59.052;1.74103e-05;0.370422;2;2462;0.00114513;-0.00310772;100 µA
0.345764;59.5434;9.04846e-06;0.345886;2;2485;0.00114513;-0.00310772;100 µA
0.321198;60.0347;-9.3689e-08;0.321259;2;2508;0.00114513;-0.00310772;10 µA
0.296631;60.526;-1.0907e-05;0.296814;2;2531;0.00114513;-0.00310772;10 µA
0.272064;61.0173;-2.47864e-05;0.272308;2;2554;0.00114513;-0.00310772;10 µA
0.247498;61.5087;-4.42932e-05;0.24762;2;2577;0.00114513;-0.00310772;100 µA
0.222931;62;-7.22351e-05;0.222992;2;2600;0.00114513;-0.00310772;100 µA
0.198364;62.4913;-0.000110046;0.198517;2;2623;0.00114513;-0.00310772;100 µA
0.173798;62.9826;-0.000154205;0.17395;2;2646;0.00114513;-0.00310772;100 µA
0.149231;63.474;-0.000197571;0.149414;2;2669;0.00114513;-0.00310772;100 µA
0.124664;63.9653;-0.00023233;0.124908;2;2692;0.00114513;-0.00310772;100 µA
0.100098;64.4566;-0.000251648;0.100372;2;2715;0.00114513;-0.00310772;100 µA
0.075531;64.948;-0.000260864;0.0757446;2;2738;0.00114513;-0.00310772;100 µA
0.0509644;65.4393;-0.000263092;0.0512085;2;2761;0.00114513;-0.00310772;100 µA
0.0263977;65.9306;-0.000261597;0.0264587;2;2784;0.00114513;-0.00310772;100 µA
0.00183105;66.4219;-0.000258484;0.00187988;2;2807;0.00114513;-0.00310772;100 µA
-0.0227356;66.9133;-0.000255005;-0.0226959;2;2830;0.00114513;-0.00310772;100 µA
-0.0473022;67.4046;-0.000251556;-0.0472321;2;2853;0.00114513;-0.00310772;100 µA
-0.0718689;67.8959;-0.000248749;-0.0715637;2;2876;0.00114513;-0.00310772;100 µA
-0.0964355;68.3872;-0.000246582;-0.0961609;2;2899;0.00114513;-0.00310772;100 µA
-0.121002;68.8786;-0.000244781;-0.120697;2;2922;0.00114513;-0.00310772;100 µA
-0.145569;69.3699;-0.000243896;-0.145264;2;2945;0.00114513;-0.00310772;100 µA
-0.170135;69.8612;-0.000243805;-0.169769;2;2968;0.00114513;-0.00310772;100 µA
-0.194702;70.3525;-0.000244324;-0.194336;2;2991;0.00114513;-0.00310772;100 µA
-0.197906;70.5021;-0.000241028;-0.197571;2;2998;0.00114513;-0.00310772;100 µA